Time	Channel A	Channel B
(us)	(V)	(mV)

-4.49999956	0.00000000	20.78002000
-4.29999957	0.00000000	20.78002000
-4.09999958	0.00000000	20.73080000
-3.89999959	0.00000000	20.36786000
-3.69999960	0.00000000	20.01722000
-3.49999962	0.00000000	20.78002000
-3.29999963	0.00000000	21.54281000
-3.09999964	0.00000000	21.19217000
-2.89999965	0.00000000	20.82923000
-2.69999966	0.00000000	20.78002000
-2.49999968	0.00000000	20.78002000
-2.29999969	0.00000000	20.82923000
-2.09999970	0.00000000	21.19217000
-1.89999971	0.00000000	21.59203000
-1.69999972	0.00000000	21.19217000
-1.49999973	0.00000000	20.82923000
-1.29999975	0.00000000	20.78002000
-1.09999976	0.00000000	20.78002000
-0.89999977	0.00000000	20.82923000
-0.69999978	0.00000000	21.24139000
-0.49999979	0.00000000	21.99803000
-0.29999981	0.35125490	21.99803000
-0.09999982	0.70250980	21.24139000
0.10000017	1.05376500	20.82923000
0.30000016	1.05376500	20.78002000
0.50000015	0.70250980	20.78002000
0.70000013	0.00000000	20.78002000
0.90000012	-0.87844490	20.78002000
1.10000011	-1.93282500	20.82923000
1.30000010	-2.63533500	21.19217000
1.50000009	-2.81127000	21.59203000
1.70000008	-2.10814500	21.19217000
1.90000006	-0.70250980	20.87844000
2.10000005	1.22970000	21.19217000
2.30000004	3.33846000	21.59203000
2.50000003	4.91941500	21.19217000
2.70000002	5.27128500	20.82923000
2.90000000	4.21690500	20.78002000
3.09999999	1.93282500	20.78002000
3.29999998	-1.40563500	20.78002000
3.49999997	-4.74409400	20.78002000
3.69999996	-7.20410900	20.78002000
3.89999994	-8.08255400	20.82923000
4.09999993	-6.85223900	21.24139000
4.29999992	-3.68971500	21.99803000
4.49999991	0.52657480	21.99803000
4.69999990	4.91941500	21.24139000
4.89999989	8.25849000	20.82923000
5.09999987	9.48818900	20.78002000
5.29999986	8.43380900	20.73080000
5.49999985	5.09534900	20.36786000
5.69999984	0.52657480	19.96801000
5.89999983	-4.21690500	20.36786000
6.09999981	-7.73129900	20.78002000
6.29999980	-9.48818900	21.19217000
6.49999979	-8.78567900	21.59203000
6.69999978	-5.79847400	21.19217000
6.89999977	-1.58095500	20.82923000
7.09999975	2.63533500	20.78002000
7.29999974	5.97379400	20.78002000
7.49999973	7.55536400	20.78002000
7.69999972	7.20410900	20.78002000
7.89999971	5.09534900	20.78002000
8.09999970	1.93282500	20.78002000
8.29999968	-1.22970000	20.78002000
8.49999967	-3.86565000	20.78002000
8.69999966	-5.09534900	20.78002000
8.89999965	-4.91941500	20.78002000
9.09999964	-3.68971500	20.78002000
9.29999962	-1.75689000	20.78002000
9.49999961	0.17531990	20.78002000
9.69999960	1.75689000	20.78002000
9.89999959	2.45940000	20.78002000
10.09999958	2.28408000	20.78002000
10.29999956	1.75689000	20.78002000
10.49999955	0.87844490	20.78002000
10.69999954	0.00000000	20.78002000
10.89999953	-0.70250980	20.78002000
11.09999952	-0.87844490	20.82923000
11.29999951	-0.87844490	21.19217000
11.49999949	-0.70250980	21.59203000
11.69999948	-0.52657480	21.19217000
11.89999947	0.00000000	20.82923000
12.09999946	0.00000000	20.78002000
12.29999945	0.00000000	20.78002000
12.49999943	-0.17531990	20.82923000
12.69999942	-0.17531990	21.19217000
12.89999941	-0.17531990	21.59203000
13.09999940	-0.17531990	21.19217000
13.29999939	-0.17531990	20.82923000
13.49999937	0.00000000	20.78002000
13.69999936	0.00000000	20.78002000
13.89999935	0.00000000	20.78002000
14.09999934	0.00000000	20.78002000
14.29999933	0.00000000	20.78002000
14.49999932	0.00000000	20.78002000
14.69999930	0.00000000	20.78002000
14.89999929	0.00000000	20.78002000
15.09999928	0.00000000	20.78002000
15.29999927	0.00000000	20.78002000
15.49999926	0.00000000	20.78002000
15.69999924	0.00000000	20.78002000
15.89999923	0.00000000	20.78002000
16.09999922	-0.17531990	20.78002000
16.29999921	0.00000000	20.78002000
16.49999920	0.00000000	20.78002000
16.69999919	0.00000000	20.78002000
16.89999917	0.00000000	20.78002000
17.09999916	0.00000000	20.78002000
17.29999915	0.00000000	20.78002000
17.49999914	0.00000000	20.78002000
17.69999913	0.00000000	20.78002000
17.89999911	0.00000000	20.78002000
18.09999910	0.00000000	20.78002000
18.29999909	0.00000000	20.78002000
18.49999908	0.00000000	20.78002000
18.69999907	0.00000000	20.78002000
18.89999905	0.00000000	20.78002000
19.09999904	0.00000000	20.78002000
19.29999903	-0.17531990	20.78002000
19.49999902	0.00000000	20.78002000
19.69999901	0.00000000	20.78002000
19.89999900	0.00000000	20.78002000
20.09999898	0.00000000	20.78002000
20.29999897	0.00000000	20.78002000
20.49999896	0.00000000	20.78002000
20.69999895	0.00000000	20.78002000
20.89999894	0.00000000	20.78002000
21.09999892	0.00000000	20.78002000
21.29999891	0.00000000	20.78002000
21.49999890	0.00000000	20.78002000
21.69999889	0.00000000	20.78002000
21.89999888	0.00000000	20.78002000
22.09999886	0.00000000	20.78002000
22.29999885	0.00000000	20.78002000
22.49999884	0.00000000	20.78002000
22.69999883	0.00000000	20.78002000
22.89999882	0.00000000	20.78002000
23.09999881	0.00000000	20.73080000
23.29999879	0.00000000	20.31865000
23.49999878	0.00000000	19.50664000
23.69999877	0.00000000	19.09449000
23.89999876	0.00000000	19.09449000
24.09999875	0.00000000	19.55585000
24.29999873	0.00000000	20.78002000
24.49999872	0.00000000	22.04724000
24.69999871	0.00000000	22.92076000
24.89999870	0.00000000	23.78199000
25.09999869	0.00000000	24.19414000
25.29999867	0.00000000	24.14493000
25.49999866	0.00000000	23.22835000
25.69999865	0.00000000	20.73080000
25.89999864	0.00000000	17.77805000
26.09999863	0.00000000	15.21900000
26.29999862	0.00000000	13.03519000
26.49999860	0.00000000	11.90330000
26.69999859	0.00000000	12.37697000
26.89999858	0.00000000	15.87721000
27.09999857	0.00000000	21.69660000
27.29999856	0.00000000	28.51870000
27.49999854	0.00000000	34.38730000
27.69999853	0.00000000	38.15822000
27.89999852	0.00000000	38.05979000
28.09999851	0.00000000	33.37229000
28.29999850	0.00000000	24.85851000
28.49999848	0.00000000	13.85334000
28.69999847	0.00000000	2.89739200
28.89999846	0.00000000	-5.10580700
29.09999845	0.00000000	-8.00935000
29.29999844	0.00000000	-4.54601300
29.49999843	0.00000000	5.23499000
29.69999841	0.00000000	19.70349000
29.89999840	0.00000000	36.16510000
30.09999839	0.00000000	50.89198000
30.29999838	0.00000000	59.30118000
30.49999837	0.00000000	59.30118000
30.69999835	0.00000000	50.69513000
30.89999834	0.00000000	34.12894000
31.09999833	0.00000000	12.57997000
31.29999832	0.00000000	-8.56914300
31.49999831	0.00000000	-24.56939000
31.69999829	0.00000000	-31.19464000
31.89999828	0.00000000	-25.28297000
32.09999827	0.00000000	-8.42150500
32.29999826	0.00000000	14.91757000
32.49999825	0.00000000	40.39739000
32.69999824	0.00000000	62.76451000
32.89999822	0.00000000	76.63017000
33.09999821	0.00000000	77.85432000
33.29999820	0.00000000	65.57578000
33.49999819	0.00000000	42.79035000
33.69999818	0.00000000	14.81914000
33.89999816	0.00000000	-11.83563000
34.09999815	0.00000000	-31.69906000
34.29999814	0.00000000	-39.70226000
34.49999813	0.00000000	-33.84596000
34.69999812	0.00000000	-16.06176000
34.89999810	0.00000000	9.77485200
35.09999809	0.00000000	38.10285000
35.29999808	0.00000000	62.21087000
35.49999807	0.00000000	76.63017000
35.69999806	0.00000000	78.31569000
35.89999805	0.00000000	66.89837000
36.09999803	0.00000000	44.93725000
36.29999802	0.00000000	17.92569000
36.49999801	0.00000000	-7.40034400
36.69999800	0.00000000	-24.82160000
36.89999799	0.00000000	-30.83784000
37.09999797	0.00000000	-25.38140000
37.29999796	0.00000000	-9.73794300
37.49999795	0.00000000	12.21703000
37.69999794	0.00000000	35.05167000
37.89999793	0.00000000	53.59867000
38.09999791	0.00000000	62.92446000
38.29999790	0.00000000	60.93750000
38.49999789	0.00000000	49.66781000
38.69999788	0.00000000	32.75098000
38.89999787	0.00000000	14.60999000
39.09999786	0.00000000	-0.67052160
39.29999784	0.00000000	-9.54109200
39.49999783	0.00000000	-10.45152000
39.69999782	0.00000000	-3.32185000
39.89999781	0.00000000	9.21505800
40.09999780	0.00000000	23.12377000
40.29999778	0.00000000	34.54109000
40.49999777	0.00000000	40.91412000
40.69999776	0.00000000	41.01255000
40.89999775	0.00000000	35.66068000
41.09999774	0.00000000	27.65748000
41.29999772	0.00000000	19.19291000
41.49999771	0.00000000	12.01402000
41.69999770	0.00000000	8.23695900
41.89999769	0.00000000	8.55068800
42.09999768	0.00000000	12.31545000
42.29999767	0.00000000	17.67962000
42.49999765	0.00000000	22.71777000
42.69999764	0.00000000	25.26452000
42.89999763	0.00000000	25.41215000
43.09999762	0.00000000	24.19414000
43.29999761	0.00000000	22.50861000
43.49999759	0.00000000	20.82923000
43.69999758	0.00000000	19.60507000
43.89999757	0.00000000	19.55585000
44.09999756	0.00000000	20.31865000
44.29999755	0.00000000	20.73080000
44.49999753	0.00000000	20.73080000
44.69999752	0.00000000	20.26944000
44.89999751	0.00000000	18.99606000
45.09999750	0.00000000	17.36589000
45.29999749	0.00000000	16.09252000
45.49999748	0.00000000	15.72958000
45.69999746	0.00000000	16.59695000
45.89999745	0.00000000	19.14370000
46.09999744	-0.17531990	22.45940000
46.29999743	0.00000000	25.46137000
46.49999742	0.00000000	27.55905000
46.69999740	0.00000000	28.37106000
46.89999739	0.00000000	27.04847000
47.09999738	0.00000000	23.68356000
47.29999737	0.00000000	19.04527000
47.49999736	0.00000000	14.46235000
47.69999734	0.00000000	11.50344000
47.89999733	0.00000000	11.04823000
48.09999732	0.00000000	12.72761000
48.29999731	0.00000000	16.09252000
48.49999730	-0.17531990	20.31865000
48.69999729	0.00000000	24.14493000
48.89999727	0.00000000	27.14690000
49.09999726	0.00000000	28.77707000
49.29999725	0.00000000	28.37106000
49.49999724	0.00000000	25.87352000
49.69999723	0.00000000	22.55782000
49.89999721	0.00000000	19.55585000
50.09999720	0.00000000	17.36589000
50.29999719	0.00000000	15.68036000
50.49999718	0.00000000	14.81914000
50.69999717	0.00000000	15.21900000
50.89999715	0.00000000	16.04331000
51.09999714	0.00000000	17.36589000
51.29999713	0.00000000	19.04527000
51.49999712	0.00000000	20.78002000
51.69999711	0.00000000	22.50861000
51.89999710	0.00000000	24.19414000
52.09999708	0.00000000	25.41215000
52.29999707	0.00000000	25.41215000
52.49999706	0.00000000	24.19414000
52.69999705	0.00000000	22.50861000
52.89999704	0.00000000	20.73080000
53.09999702	0.00000000	18.63312000
53.29999701	0.00000000	16.49852000
53.49999700	0.00000000	15.26821000
53.69999699	-0.17531990	14.86836000
53.89999698	0.00000000	16.14173000
54.09999696	0.00000000	18.63312000
54.29999695	0.00000000	21.19217000
54.49999694	0.00000000	23.73277000
54.69999693	0.00000000	25.41215000
54.89999692	0.00000000	25.87352000
55.09999691	0.00000000	25.41215000
55.29999689	0.00000000	23.68356000
55.49999688	0.00000000	20.78002000
55.69999687	0.00000000	17.87647000
55.89999686	0.00000000	16.14173000
56.09999685	0.00000000	15.68036000
56.29999683	0.00000000	16.14173000
56.49999682	0.00000000	17.87647000
56.69999681	0.00000000	20.78002000
56.89999680	0.00000000	23.73277000
57.09999679	0.00000000	25.82431000
57.29999677	0.00000000	26.63632000
57.49999676	0.00000000	25.36294000
57.69999675	0.00000000	22.45940000
57.89999674	0.00000000	19.09449000
58.09999673	0.00000000	16.14173000
58.29999672	0.00000000	14.46235000
58.49999670	0.00000000	14.41314000
58.69999669	0.00000000	15.72958000
58.89999668	0.00000000	18.23327000
59.09999667	0.00000000	21.64124000
59.29999666	0.00000000	24.55709000
59.49999664	0.00000000	26.69168000
59.69999663	0.00000000	27.04847000
59.89999662	0.00000000	25.41215000
60.09999661	0.00000000	22.45940000
60.29999660	0.00000000	19.09449000
60.49999658	0.00000000	16.09252000
60.69999657	0.00000000	14.00098000
60.89999656	0.00000000	13.18898000
61.09999655	0.00000000	14.46235000
61.29999654	0.00000000	17.36589000
61.49999653	0.00000000	20.73080000
61.69999651	0.00000000	23.73277000
61.89999650	0.00000000	25.82431000
62.09999649	0.00000000	26.68553000
62.29999648	0.00000000	25.87352000
62.49999647	0.00000000	24.19414000
62.69999645	0.00000000	22.04724000
62.89999644	0.00000000	19.50664000
63.09999643	0.00000000	17.41511000
63.29999642	0.00000000	16.09252000
63.49999641	0.00000000	15.68036000
63.69999639	0.00000000	16.04331000
63.89999638	0.00000000	16.90453000
64.09999637	0.00000000	17.82726000
64.29999636	0.00000000	19.55585000
64.49999635	0.00000000	21.99803000
64.69999634	0.00000000	23.73277000
64.89999632	0.00000000	24.65551000
65.09999631	0.00000000	25.51058000
65.29999630	0.00000000	25.87352000
65.49999629	0.00000000	25.46137000
65.69999628	0.00000000	24.09572000
65.89999626	0.00000000	21.54281000
66.09999625	0.00000000	17.72884000
66.29999624	0.00000000	14.00098000
66.49999623	0.00000000	11.45423000
66.69999622	0.00000000	10.99901000
66.89999620	0.00000000	12.21703000
67.09999619	0.00000000	14.46235000
67.29999618	0.00000000	18.33169000
67.49999617	0.00000000	23.73277000
67.69999616	0.00000000	28.32185000
67.89999615	0.00000000	30.51181000
68.09999613	0.00000000	30.51181000
68.29999612	0.00000000	28.37106000
68.49999611	0.00000000	24.09572000
68.69999610	0.00000000	18.63312000
68.89999609	0.00000000	13.13361000
69.09999607	0.00000000	9.36269600
69.29999606	0.00000000	8.04010800
69.49999605	0.00000000	9.36269600
69.69999604	0.00000000	13.13361000
69.89999603	0.00000000	18.63312000
70.09999601	0.00000000	24.14493000
70.29999600	0.00000000	28.82628000
70.49999599	0.00000000	31.78518000
70.69999598	0.00000000	32.24040000
70.89999597	0.00000000	30.51181000
71.09999596	0.00000000	26.64247000
71.29999594	0.00000000	20.82923000
71.49999593	0.00000000	15.28051000
71.69999592	0.00000000	11.44808000
71.89999591	0.00000000	8.91363100
72.09999590	0.00000000	9.41190900
72.29999588	0.00000000	12.62918000
72.49999587	0.00000000	16.90453000
72.69999586	0.00000000	21.19217000
72.89999585	0.00000000	25.46137000
73.09999584	0.00000000	28.77707000
73.29999582	0.00000000	30.05044000
73.49999581	0.00000000	28.77707000
73.69999580	0.00000000	25.46137000
73.89999579	0.00000000	21.19217000
74.09999578	0.00000000	16.95374000
74.29999577	0.00000000	13.13976000
74.49999575	0.00000000	11.09744000
74.69999574	0.00000000	11.45423000
74.89999573	0.00000000	14.00098000
75.09999572	0.00000000	17.77805000
75.29999571	0.00000000	22.04724000
75.49999569	0.00000000	25.82431000
75.69999568	0.00000000	28.37106000
75.89999567	0.00000000	28.77707000
76.09999566	0.00000000	27.09768000
76.29999565	0.00000000	23.68356000
76.49999563	0.00000000	19.04527000
76.69999562	0.00000000	14.41314000
76.89999561	0.00000000	11.09744000
77.09999560	0.00000000	10.23007000
77.29999559	0.00000000	12.31545000
77.49999558	0.00000000	16.09252000
77.69999556	0.00000000	20.82923000
77.89999555	0.00000000	25.87352000
78.09999554	0.00000000	30.09965000
78.29999553	0.00000000	32.14198000
78.49999552	0.00000000	31.27460000
78.69999550	0.00000000	27.09768000
78.89999549	0.00000000	21.19217000
79.09999548	0.00000000	15.21900000
79.29999547	0.00000000	9.71948700
79.49999546	0.00000000	6.40378900
79.69999544	0.00000000	6.35457700
79.89999543	0.00000000	9.36269600
80.09999542	0.00000000	14.86836000
80.29999541	0.00000000	22.04724000
80.49999540	0.00000000	28.77707000
80.69999539	0.00000000	33.46457000
80.89999537	0.00000000	35.15010000
81.09999536	0.00000000	33.46457000
81.29999535	0.00000000	28.82628000
81.49999534	0.00000000	22.45940000
81.69999533	0.00000000	15.68036000
81.89999531	0.00000000	9.71948700
82.09999530	0.00000000	5.94857300
82.29999529	0.00000000	5.08735200
82.49999528	0.00000000	7.63410400
82.69999527	0.00000000	12.72761000
82.89999525	0.00000000	19.50664000
83.09999524	0.00000000	26.68553000
83.29999523	0.00000000	32.19119000
83.49999522	0.00000000	35.19931000
83.69999521	0.00000000	35.19931000
83.89999520	0.00000000	32.24040000
84.09999518	0.00000000	27.14690000
84.29999517	0.00000000	20.78002000
84.49999516	0.00000000	14.41314000
84.69999515	0.00000000	9.31348400
84.89999514	0.00000000	6.30536400
85.09999512	0.00000000	5.89936000
85.29999511	0.00000000	8.04010800
85.49999510	0.00000000	12.72761000
85.69999509	0.00000000	19.04527000
85.89999508	0.00000000	25.41215000
86.09999506	0.00000000	30.56102000
86.29999505	0.00000000	33.92593000
86.49999504	0.00000000	34.73794000
86.69999503	0.00000000	32.24040000
86.89999502	0.00000000	27.60827000
87.09999501	0.00000000	21.99803000
87.29999499	0.00000000	15.63115000
87.49999498	0.00000000	9.76870100
87.69999497	0.00000000	6.35457700
87.89999496	0.00000000	5.89936000
88.09999495	0.00000000	8.04010800
88.29999493	0.00000000	12.72761000
88.49999492	0.00000000	19.04527000
88.69999491	0.00000000	25.41215000
88.89999490	0.00000000	30.51181000
89.09999489	0.00000000	33.47072000
89.29999487	0.00000000	33.47072000
89.49999486	0.00000000	30.56102000
89.69999485	0.00000000	25.87352000
89.89999484	0.00000000	20.31865000
90.09999483	0.00000000	14.41314000
90.29999482	0.00000000	9.77485200
90.49999480	0.00000000	7.63410400
90.69999479	0.00000000	8.04010800
90.89999478	0.00000000	10.99901000
91.09999477	0.00000000	15.63115000
91.29999476	0.00000000	20.73080000
91.49999474	0.00000000	25.36294000
91.69999473	0.00000000	28.37106000
91.89999472	0.00000000	29.23843000
92.09999471	0.00000000	28.42027000
92.29999470	0.00000000	25.87352000
92.49999468	0.00000000	22.50861000
92.69999467	0.00000000	19.09449000
92.89999466	0.00000000	16.14173000
93.09999465	0.00000000	14.41314000
93.29999464	0.00000000	13.95177000
93.49999463	0.00000000	14.41314000
93.69999461	0.00000000	16.09252000
93.89999460	0.00000000	18.58391000
94.09999459	0.00000000	20.73080000
94.29999458	0.00000000	22.45940000
94.49999457	0.00000000	23.68356000
94.69999455	0.00000000	23.73277000
94.89999454	0.00000000	22.92076000
95.09999453	0.00000000	22.09646000
95.29999452	0.00000000	21.19217000
95.49999451	0.00000000	20.36786000
95.69999449	0.00000000	19.45743000
95.89999448	0.00000000	18.63312000
96.09999447	0.00000000	17.82726000
96.29999446	0.00000000	17.82726000
96.49999445	0.00000000	18.58391000
96.69999444	0.00000000	18.99606000
96.89999442	0.00000000	19.09449000
97.09999441	0.00000000	19.50664000
97.29999440	0.00000000	20.31865000
97.49999439	0.00000000	20.73080000
97.69999438	0.00000000	20.82923000
97.89999436	0.00000000	21.24139000
98.09999435	0.00000000	21.99803000
98.29999434	0.00000000	21.99803000
98.49999433	0.00000000	21.19217000
98.69999432	0.00000000	20.31865000
98.89999430	0.00000000	19.04527000
99.09999429	0.00000000	17.82726000
99.29999428	0.00000000	17.36589000
99.49999427	0.00000000	17.36589000
99.69999426	0.00000000	17.77805000
99.89999425	0.00000000	18.63312000
100.09999423	0.00000000	19.50664000
100.29999422	0.00000000	20.82923000
100.49999421	0.00000000	22.41018000
100.69999420	0.00000000	23.22219000
100.89999419	0.00000000	22.45940000
101.09999417	0.00000000	21.29060000
101.29999416	0.00000000	20.78002000
101.49999415	0.00000000	20.31865000
101.69999414	0.00000000	19.45743000
101.89999413	0.00000000	18.63312000
102.09999411	0.00000000	17.77805000
102.29999410	0.00000000	17.41511000
102.49999409	0.00000000	17.82726000
102.69999408	0.00000000	19.04527000
102.89999407	0.00000000	20.31865000
103.09999406	0.00000000	21.19217000
103.29999404	0.00000000	22.04724000
103.49999403	0.00000000	22.41018000
103.69999402	-0.17531990	22.04724000
103.89999401	0.00000000	21.19217000
104.09999400	0.00000000	20.36786000
104.29999398	0.00000000	19.45743000
104.49999397	0.00000000	18.63312000
104.69999396	0.00000000	17.77805000
104.89999395	0.00000000	17.41511000
105.09999394	0.00000000	17.82726000
105.29999392	0.00000000	19.04527000
105.49999391	0.00000000	20.31865000
105.69999390	0.00000000	21.19217000
105.89999389	0.00000000	22.04724000
106.09999388	0.00000000	22.41018000
106.29999387	0.00000000	21.99803000
106.49999385	-0.17531990	20.78002000
106.69999384	0.00000000	19.50664000
106.89999383	0.00000000	18.63312000
107.09999382	0.00000000	17.77805000
107.29999381	0.00000000	17.36589000
107.49999379	0.00000000	17.36589000
107.69999378	0.00000000	17.82726000
107.89999377	0.00000000	19.09449000
108.09999376	0.00000000	20.73080000
108.29999375	0.00000000	21.99803000
108.49999374	0.00000000	22.45940000
108.69999372	0.00000000	22.50861000
108.89999371	0.00000000	22.45940000
109.09999370	0.00000000	21.99803000
